Sensor Model:   RuO2 
Serial Number:  Rox-WMI cad4
Data Format:    4      (Log Ohms vs, Kelvin)
SetPoint Limit: 8,6      (Kelvin)
Temperature coefficient:  1 (Negative)
Number of Breakpoints:   127

No,   Units      Temperature (K)

1	3,44989	8,60381
2	3,45453	8,11993
3	3,45919	7,6744
4	3,46396	7,25398
5	3,46847	6,87494
6	3,47302	6,50622
7	3,47773	6,16484
8	3,48229	5,84906
9	3,48687	5,55026
10	3,49164	5,27253
11	3,49618	5,01761
12	3,50104	4,75581
13	3,50575	4,52341
14	3,51061	4,29733
15	3,51568	4,08105
16	3,52067	3,87586
17	3,52553	3,68836
18	3,53068	3,5073
19	3,53583	3,33004
20	3,54123	3,16648
21	3,54659	3,00964
22	3,55217	2,85914
23	3,55761	2,7194
24	3,56330	2,58568
25	3,56904	2,45666
26	3,57501	2,33443
27	3,58108	2,21646
28	3,58711	2,10784
29	3,59347	2,00173
30	3,59991	1,9026
31	3,60621	1,81005
32	3,61291	1,71882
33	3,61962	1,62886
34	3,62627	1,54987
35	3,63327	1,47285
36	3,64055	1,39725
37	3,64785	1,32741
38	3,65522	1,26085
39	3,66271	1,19855
40	3,67034	1,13797
41	3,67824	1,08168
42	3,68620	1,02785
43	3,69417	0,97627
44	3,70240	0,92749
45	3,71074	0,8816
46	3,71935	0,83737
47	3,72801	0,79551
48	3,73679	0,75619
49	3,74572	0,71871
50	3,74602	0,7177
51	3,74612	0,71773
52	3,75533	0,68128
53	3,76463	0,64761
54	3,77383	0,61441
55	3,78375	0,58421
56	3,79354	0,55515
57	3,80338	0,52758
58	3,81371	0,50096
59	3,82398	0,476
60	3,83458	0,45221
61	3,84479	0,42938
62	3,85625	0,40816
63	3,86704	0,38788
64	3,87823	0,36851
65	3,88959	0,35028
66	3,90112	0,3327
67	3,91275	0,31642
68	3,92475	0,30031
69	3,93715	0,2855
70	3,94928	0,27134
71	3,96182	0,25762
72	3,97448	0,24489
73	3,98714	0,23253
74	4,00085	0,22082
75	4,01407	0,2099
76	4,02764	0,19941
77	4,04140	0,18947
78	4,05535	0,18011
79	4,06961	0,17117
80	4,08407	0,16255
81	4,09875	0,15447
82	4,11362	0,14673
83	4,12889	0,13934
84	4,14422	0,1324
85	4,16008	0,12585
86	4,17588	0,11959
87	4,19182	0,11372
88	4,20836	0,10807
89	4,22487	0,10268
90	4,24216	0,09757
91	4,25958	0,0927
92	4,27754	0,08807
93	4,29547	0,08365
94	4,31400	0,07945
95	4,33272	0,07547
96	4,35169	0,0717
97	4,37127	0,06808
98	4,39129	0,06468
99	4,41115	0,06145
100	4,43221	0,05834
101	4,45325	0,05541
102	4,47492	0,05263
103	4,49730	0,04996
104	4,51961	0,04743
105	4,54276	0,04505
106	4,56639	0,04274
107	4,59058	0,04056
108	4,49811	0,04989
109	4,52085	0,04735
110	4,54389	0,04497
111	4,56728	0,04269
112	4,59104	0,04053
113	4,61542	0,03849
114	4,64070	0,03658
115	4,66600	0,03473
116	4,69152	0,03296
117	4,71799	0,03131
118	4,74527	0,02974
119	4,77220	0,02823
120	4,80062	0,02679
121	4,82844	0,02541
122	4,85743	0,02409
123	4,88731	0,02283
124	4,91601	0,02166
125	4,94477	0,02049
126	4,97388	0,01941
127	5,00102	0,01837