Sensor Model:	Speer Leiden Cr
Serial Number:	S9905
Data Format:	1	(milli-Volts/Kelvin)
SetPoint Limit:	+5.00000

Measurement (milli-Volts)	Temp (K)
2.855760E+00	4.929080E+00
2.861000E+00	4.601500E+00
2.866410E+00	4.290540E+00
2.871980E+00	4.003570E+00
2.877720E+00	3.739750E+00
2.883830E+00	3.480140E+00
2.890090E+00	3.246610E+00
2.896640E+00	3.025420E+00
2.902760E+00	2.839900E+00
2.910360E+00	2.635940E+00
2.917030E+00	2.468950E+00
2.925000E+00	2.296460E+00
2.932630E+00	2.145240E+00
2.940620E+00	2.005090E+00
2.949440E+00	1.865490E+00
2.957890E+00	1.745580E+00
2.967500E+00	1.624360E+00
2.976670E+00	1.520340E+00
2.987170E+00	1.413790E+00
2.997690E+00	1.317250E+00
3.008050E+00	1.232600E+00
3.019490E+00	1.149070E+00
3.031000E+00	1.072700E+00
3.031450E+00	1.070250E+00
3.043830E+00	9.973400E-01
3.054080E+00	9.405000E-01
3.064720E+00	8.888400E-01
3.075950E+00	8.364200E-01
3.086470E+00	7.933800E-01
3.097670E+00	7.479300E-01
3.109810E+00	7.042200E-01
3.122310E+00	6.643100E-01
3.133540E+00	6.290600E-01
3.146310E+00	5.927200E-01
3.159390E+00	5.588000E-01
3.172920E+00	5.277700E-01
3.186450E+00	4.978300E-01
3.201180E+00	4.696800E-01
3.215820E+00	4.440100E-01
3.231500E+00	4.179400E-01
3.246970E+00	3.944300E-01
3.261740E+00	3.724000E-01
3.278300E+00	3.517100E-01
3.294690E+00	3.318700E-01
3.310910E+00	3.132000E-01
3.327770E+00	2.950500E-01
3.344980E+00	2.783600E-01
3.362110E+00	2.629400E-01
3.379850E+00	2.479800E-01
3.397590E+00	2.340900E-01
3.415640E+00	2.209000E-01
3.433770E+00	2.087200E-01
3.452860E+00	1.965000E-01
3.472900E+00	1.854500E-01
3.493040E+00	1.750100E-01
3.513480E+00	1.652000E-01
3.533640E+00	1.560300E-01
3.555700E+00	1.466900E-01
3.576110E+00	1.389600E-01
3.597370E+00	1.311500E-01
3.621700E+00	1.233400E-01
3.643950E+00	1.165500E-01
3.666990E+00	1.100400E-01
3.691970E+00	1.038600E-01
3.718000E+00	9.743000E-02
3.742880E+00	9.237000E-02
3.772620E+00	8.707000E-02
3.792460E+00	8.263000E-02
3.825490E+00	7.735000E-02
3.848370E+00	7.379000E-02
3.876910E+00	6.953000E-02
3.907890E+00	6.517000E-02
3.939220E+00	6.168000E-02
3.970160E+00	5.996000E-02
3.977860E+00	5.811000E-02
3.978960E+00	5.791000E-02
4.002250E+00	5.714000E-02
4.028410E+00	5.496000E-02
4.069040E+00	5.217000E-02
4.092130E+00	4.973000E-02
4.097260E+00	5.022000E-02
4.103460E+00	5.010000E-02
4.115550E+00	4.714000E-02
4.138970E+00	4.469000E-02
4.162390E+00	4.236000E-02
4.163940E+00	4.016000E-02
4.200390E+00	3.807000E-02
4.231510E+00	3.608000E-02
4.258980E+00	3.421000E-02
4.284380E+00	3.243000E-02
4.309770E+00	3.074000E-02
4.335170E+00	2.914000E-02
4.360570E+00	2.762000E-02
4.385290E+00	2.618000E-02
4.408560E+00	2.482000E-02
4.438880E+00	2.353000E-02
4.449710E+00	2.114000E-02
4.452750E+00	2.231000E-02
4.487470E+00	2.004000E-02
4.500930E+00	1.900000E-02
4.502760E+00	1.801000E-02
4.514330E+00	1.707000E-02
4.532690E+00	1.619000E-02
4.551050E+00	1.534000E-02
4.569410E+00	1.454000E-02
4.587780E+00	1.379000E-02
4.606140E+00	1.307000E-02
4.624500E+00	1.239000E-02
4.642860E+00	1.174000E-02
4.661220E+00	1.113000E-02
4.679580E+00	1.055000E-02
4.697950E+00	1.000000E-02
4.700740E+00	9.480000E-03
4.702110E+00	8.990000E-03
4.703470E+00	8.520000E-03
4.704840E+00	8.080000E-03
4.706200E+00	7.660000E-03
4.707570E+00	7.260000E-03
